     sqrts[GeV]         T[MeV]       muB[MeV]       muQ[MeV]       muS[MeV]       nH[fm-3]          nB/nH          nQ/nH          nS/nH
              2        39.3465        846.054       -21.2128        152.385      0.0229593       0.976792       0.477906    0.000576077
           2.08        43.5809        834.269       -22.1063        151.366      0.0264619       0.965475       0.483149      0.0013676
        2.16319        47.7595        822.356       -22.6331        150.293      0.0302319       0.952129        0.48973     0.00276088
        2.24972        51.8785        810.322       -22.8278        149.157      0.0342878       0.937042       0.497105     0.00493366
         2.3397        55.9341        798.175       -22.7435        147.957      0.0386433         0.9205       0.504791     0.00802534
        2.43329        59.9229        785.922       -22.4409          146.7      0.0433091       0.902761       0.512413      0.0121239
        2.53062        63.8414        773.572       -21.9797        145.392      0.0482943       0.884058       0.519705      0.0172625
        2.63184        67.6865        761.133       -21.4126        144.041      0.0536075       0.864599       0.526503      0.0234236
        2.73711        71.4554        748.614       -20.7833        142.653      0.0592572       0.844573       0.532717      0.0305462
        2.84659        75.1455        736.023       -20.1256        141.231      0.0652518       0.824153       0.538312      0.0385356
        2.96045        78.7544        723.371       -19.4647        139.779      0.0715988       0.803496       0.543289      0.0472734
        3.07886        82.2799        710.666        -18.818        138.296      0.0783042       0.782742       0.547669      0.0566272
        3.20201        85.7202        697.917       -18.1969        136.781      0.0853716       0.762016       0.551488      0.0664585
        3.33008        89.0737        685.135       -17.6083        135.235      0.0928021       0.741423       0.554784      0.0766301
        3.46328         92.339        672.329       -17.0553        133.654       0.100593       0.721053         0.5576      0.0870114
        3.60181        95.5149        659.509       -16.5389        132.037       0.108737       0.700975       0.559976      0.0974822
        3.74587        98.6007        646.685       -16.0583        130.384       0.117225       0.681247       0.561953       0.107935
         3.8957        101.596        633.866       -15.6115        128.693        0.12604        0.66191        0.56357       0.118277
        4.05153          104.5        621.063        -15.196        126.962       0.135166       0.642995       0.564861        0.12843
        4.21358        107.312        608.285       -14.8089        125.192       0.144578        0.62452       0.565862       0.138329
        4.38212        110.034        595.542       -14.4472        123.383       0.154251       0.606499       0.566603       0.147924
         4.5574        112.664        582.844       -14.1079        121.536       0.164157       0.588938       0.567114       0.157176
        4.73968        115.205          570.2       -13.7881        119.651       0.174264       0.571838       0.567422       0.166056
        4.92926        117.655        557.619       -13.4853        117.731       0.184539       0.555198        0.56755       0.174545
        5.12643        120.017         545.11        -13.197        115.776       0.194946       0.539013       0.567523       0.182633
        5.33148        122.291        532.683        -12.921        113.789       0.205452       0.523279       0.567361       0.190316
        5.54473        124.479        520.346       -12.6553        111.774       0.216021       0.507991       0.567082       0.197593
        5.76651        126.581        508.108       -12.3983        109.731       0.226617       0.493142       0.566704       0.204471
        5.99716          128.6        495.976       -12.1485        107.665       0.237205       0.478727       0.566243       0.210957
        6.23704        130.537        483.958       -11.9045        105.579       0.247752        0.46474       0.565711       0.217064
        6.48651        132.393        472.063       -11.6654        103.475       0.258227       0.451178       0.565123       0.222804
        6.74596        134.171        460.296       -11.4302        101.357       0.268599       0.438034       0.564488       0.228192
        7.01579        135.871        448.666       -11.1981        99.2278       0.278839       0.425304       0.563817       0.233243
        7.29641        137.498        437.178       -10.9686        97.0913       0.288923       0.412986       0.563118       0.237972
        7.58825        139.051        425.838       -10.7412        94.9504       0.298826       0.401073       0.562399       0.242398
        7.89177        140.534        414.652       -10.5155        92.8082       0.308526       0.389563       0.561668       0.246534
        8.20743        141.948        403.625       -10.2912         90.668       0.318006       0.378452       0.560929       0.250398
        8.53572        143.296        392.763       -10.0683        88.5326       0.327249       0.367734       0.560189       0.254004
        8.87713         144.58         382.07       -9.84644         86.405        0.33624       0.357407       0.559451       0.257369
         9.2322        145.801         371.55       -9.62573         84.288       0.344969       0.347465        0.55872       0.260507
        9.60148        146.963        361.206       -9.40613        82.1842       0.353425       0.337904       0.557998       0.263431
        9.98552        148.066        351.042       -9.18767        80.0961       0.361602       0.328717       0.557289       0.266156
        10.3849        149.114        341.062       -8.97044        78.0261       0.369493       0.319899       0.556596       0.268694
        10.8003        150.108        331.266       -8.75453        75.9764       0.377096       0.311443       0.555919       0.271057
        11.2323        151.051        321.659       -8.54007         73.949       0.384409       0.303344        0.55526       0.273257
        11.6816        151.944        312.241        -8.3272         71.946       0.391431       0.295594       0.554621       0.275304
        12.1488        152.791        303.014       -8.11608         69.969       0.398164       0.288185       0.554003       0.277209
        12.6348        153.591         293.98       -7.90686        68.0197       0.404609       0.281109       0.553407       0.278982
        13.1401        154.348        285.138        -7.6997        66.0995       0.410772       0.274358       0.552832       0.280631
        13.6657        155.064         276.49       -7.49477        64.2098       0.416656       0.267923       0.552279       0.282165
        14.2123         155.74        268.035       -7.29223        62.3518       0.422266       0.261796       0.551749       0.283592
        14.7808        156.379        259.773       -7.09222        60.5265       0.427609       0.255968       0.551241       0.284919
         15.372        156.981        251.705       -6.89491        58.7347       0.432692       0.250428       0.550756       0.286154
        15.9869        157.549        243.829       -6.70043        56.9774       0.437521       0.245167       0.550292       0.287302
        16.6263        158.084        236.144       -6.50891        55.2552       0.442105       0.240177        0.54985        0.28837
        17.2913        158.588         228.65       -6.32047        53.5685       0.446452       0.235446       0.549429       0.289363
         17.983        159.063        221.344       -6.13524         51.918       0.450569       0.230966       0.549028       0.290286
        18.7023        159.509        214.226        -5.9533        50.3038       0.454466       0.226726       0.548648       0.291145
        19.4503        159.929        207.292       -5.77475        48.7263        0.45815       0.222717       0.548287       0.291944
        20.2283        160.324        200.542       -5.59966        47.1856       0.461631        0.21893       0.547945       0.292687
        21.0374        160.695        193.973       -5.42812        45.6817       0.464916       0.215354       0.547621       0.293378
        21.8789        161.043        187.583       -5.26016        44.2146       0.468015       0.211981       0.547315        0.29402
         22.754         161.37        181.368       -5.09585        42.7843       0.470935       0.208802       0.547026       0.294618
        23.6641        161.677        175.328       -4.93521        41.3906       0.473685       0.205806       0.546753       0.295174
        24.6106        161.965        169.459       -4.77827        40.0332       0.476273       0.202987       0.546495        0.29569
         25.595        162.234        163.757       -4.62504        38.7119       0.478707       0.200334       0.546253       0.296171
        26.6188        162.487        158.221       -4.47555        37.4262       0.480995        0.19784       0.546024       0.296618
        27.6835        162.724        152.847       -4.32978         36.176       0.483144       0.195497       0.545809       0.297034
        28.7908        162.945        147.632       -4.18772        34.9606       0.485161       0.193296       0.545607       0.297421
        29.9424        163.153        142.573       -4.04937        33.7797       0.487053       0.191231       0.545417       0.297781
          31.14        163.347        137.666       -3.91469        32.6327       0.488827       0.189294       0.545239       0.298115
        32.3856        163.528         132.91       -3.78367        31.5191        0.49049       0.187479       0.545071       0.298426
         33.681        163.698        128.299       -3.65626        30.4384       0.492047       0.185777       0.544914       0.298715
        35.0281        163.856        123.832       -3.53242        29.3899       0.493505       0.184184       0.544767       0.298984
        36.4292        164.004        119.505       -3.41212         28.373        0.49487       0.182693       0.544629       0.299234
        37.8863        164.142        115.314       -3.29529        27.3872       0.496146       0.181297         0.5445       0.299467
        39.4017        164.271        111.256        -3.1819        26.4318       0.497339       0.179992       0.544379       0.299683
        40.9777        164.392        107.328       -3.07188        25.5061       0.498454       0.178773       0.544267       0.299884
        42.6168        164.504        103.527       -2.96517        24.6095       0.499495       0.177633       0.544161       0.300071
        44.3214        164.609        99.8493       -2.86171        23.7413       0.500468       0.176568       0.544062       0.300244
        46.0942        164.707        96.2918       -2.76145        22.9008       0.501376       0.175574        0.54397       0.300405
        47.9379        164.798        92.8513       -2.66431        22.0875       0.502223       0.174647       0.543884       0.300555
        49.8553        164.883        89.5246       -2.57023        21.3005       0.503013       0.173781       0.543804       0.300695
        51.8495        164.962        86.3087       -2.47913        20.5393        0.50375       0.172974       0.543729       0.300824
        53.9234        165.035        83.2004       -2.39096        19.8031       0.504436       0.172221       0.543659       0.300945
        56.0802        165.104        80.1967       -2.30564        19.0914       0.505076        0.17152       0.543593       0.301056
        58.3233        165.168        77.2946        -2.2231        18.4033       0.505673       0.170866       0.543533        0.30116
        60.6562        165.227        74.4911       -2.14328        17.7384       0.506228       0.170257       0.543476       0.301257
        63.0823        165.282        71.7834       -2.06609        17.0959       0.506745       0.169691       0.543423       0.301346
        65.6055        165.334        69.1686       -1.99148        16.4752       0.507226       0.169163       0.543374       0.301429
        68.2296        165.382        66.6439       -1.91938        15.8757       0.507674       0.168672       0.543329       0.301507
        70.9587        165.426        64.2066        -1.8497        15.2967        0.50809       0.168215       0.543286       0.301578
         73.797        165.467         61.854       -1.78239        14.7377       0.508478       0.167789       0.543246       0.301645
        76.7487        165.506        59.5835       -1.71739         14.198       0.508838       0.167394        0.54321       0.301707
        79.8186        165.542        57.3924       -1.65461        13.6771       0.509173       0.167026       0.543175       0.301764
        83.0112        165.575        55.2784         -1.594        13.1744       0.509485       0.166685       0.543143       0.301817
        86.3315        165.606        53.2389       -1.53549        12.6893       0.509774       0.166367       0.543114       0.301867
        89.7846        165.634        51.2716       -1.47902        12.2212       0.510043       0.166072       0.543086       0.301913
        93.3759        165.661        49.3741       -1.42452        11.7697       0.510293       0.165798       0.543061       0.301955
        97.1108        165.686        47.5442       -1.37194        11.3342       0.510525       0.165543       0.543037       0.301995
        100.995        165.708        45.7796       -1.32122        10.9141        0.51074       0.165306       0.543015       0.302031
        105.035         165.73        44.0783       -1.27229         10.509        0.51094       0.165087       0.542995       0.302065
        109.236        165.749         42.438        -1.2251        10.1184       0.511126       0.164883       0.542976       0.302097
        113.605        165.768        40.8568       -1.17959        9.74188       0.511298       0.164694       0.542958       0.302126
        118.149        165.785        39.3327       -1.13571        9.37885       0.511458       0.164518       0.542942       0.302153
        122.875        165.801        37.8638       -1.09341        9.02893       0.511607       0.164355       0.542926       0.302178
         127.79        165.815        36.4481       -1.05262        8.69166       0.511744       0.164204       0.542912       0.302201
        132.901        165.829        35.0839       -1.01331        8.36662       0.511872       0.164063       0.542899       0.302223
        138.217        165.841        33.7694      -0.975426        8.05339       0.511991       0.163933       0.542887       0.302243
        143.746        165.853        32.5029      -0.938913        7.75157       0.512101       0.163812       0.542876       0.302262
        149.495        165.864        31.2828      -0.903729        7.46077       0.512203       0.163701       0.542865       0.302279
        155.475        165.874        30.1073      -0.869827         7.1806       0.512297       0.163597       0.542856       0.302295
        161.693        165.883         28.975      -0.837164        6.91071       0.512385         0.1635       0.542847       0.302309
        168.161        165.892        27.8844      -0.805698        6.65073       0.512466       0.163411       0.542838       0.302323
        174.887          165.9         26.834      -0.775386        6.40031       0.512541       0.163329       0.542831       0.302336
        181.882        165.907        25.8223      -0.746188        6.15912       0.512611       0.163252       0.542823       0.302348
        189.157        165.914         24.848      -0.718067        5.92684       0.512676       0.163181       0.542817       0.302358
        196.723        165.921        23.9099      -0.690983        5.70315       0.512735       0.163115       0.542811       0.302369
        204.592        165.926        23.0064        -0.6649        5.48774       0.512791       0.163054       0.542805       0.302378
        212.775        165.932        22.1366      -0.639783        5.28032       0.512842       0.162998         0.5428       0.302387
        221.286        165.937        21.2991      -0.615597        5.08061        0.51289       0.162945       0.542795       0.302395
        230.137        165.942        20.4927       -0.59231        4.88833       0.512934       0.162897        0.54279       0.302402
        239.342        165.946        19.7165      -0.569889         4.7032       0.512975       0.162852       0.542786       0.302409
        248.916         165.95        18.9692      -0.548303        4.52499       0.513013        0.16281       0.542782       0.302415
        258.872        165.954        18.2498      -0.527522        4.35342       0.513048       0.162772       0.542779       0.302421
        269.226        165.957        17.5573      -0.507517        4.18827       0.513081       0.162736       0.542775       0.302427
        279.995         165.96        16.8908       -0.48826         4.0293       0.513111       0.162703       0.542772       0.302432
        291.194        165.963        16.2492      -0.469723        3.87629       0.513138       0.162672       0.542769       0.302436
        302.842        165.966        15.6318      -0.451881        3.72901       0.513164       0.162644       0.542767       0.302441
        314.955        165.969        15.0375      -0.434709        3.58726       0.513188       0.162618       0.542764       0.302445
        327.553        165.971        14.4655      -0.418181        3.45084        0.51321       0.162593       0.542762       0.302448
        340.654        165.973        13.9151      -0.402275        3.31955       0.513231       0.162571        0.54276       0.302452
         354.28        165.975        13.3854      -0.386966         3.1932        0.51325        0.16255       0.542758       0.302455
        368.451        165.977        12.8757      -0.372234        3.07161       0.513267       0.162531       0.542756       0.302458
        383.188        165.979        12.3852      -0.358058        2.95461       0.513283       0.162513       0.542755       0.302461
        398.515         165.98        11.9132      -0.344416        2.84202       0.513298       0.162496       0.542753       0.302463
        414.455        165.982         11.459      -0.331289        2.73368       0.513312       0.162481       0.542752       0.302465
        431.033        165.983         11.022      -0.318657        2.62944       0.513325       0.162467        0.54275       0.302468
        448.273        165.984        10.6015      -0.306504        2.52914       0.513337       0.162454       0.542749        0.30247
        466.203        165.986         10.197       -0.29481        2.43263       0.513348       0.162442       0.542748       0.302471
        484.851        165.987        9.80772      -0.283558        2.33978       0.513358       0.162431       0.542747       0.302473
        504.244        165.988        9.43324      -0.272733        2.25045       0.513368        0.16242       0.542746       0.302475
        524.413        165.989        9.07295      -0.262318         2.1645       0.513377       0.162411       0.542745       0.302476
        545.389        165.989        8.72633      -0.252298        2.08181       0.513385       0.162402       0.542744       0.302478
        567.204         165.99        8.39287      -0.242658        2.00226       0.513392       0.162394       0.542743       0.302479
        589.891        165.991        8.07207      -0.233384        1.92574       0.513399       0.162386       0.542743        0.30248
        613.486        165.992        7.76346      -0.224462        1.85211       0.513405       0.162379       0.542742       0.302481
        638.024        165.992        7.46658      -0.215879        1.78129       0.513411       0.162372       0.542741       0.302482
        663.544        165.993        7.18099      -0.207623        1.71316       0.513417       0.162366       0.542741       0.302483
        690.085        165.993        6.90627      -0.199681        1.64762       0.513422       0.162361        0.54274       0.302484
        717.687        165.994          6.642      -0.192041        1.58458       0.513427       0.162356        0.54274       0.302485
        746.393        165.994         6.3878      -0.184691        1.52393       0.513431       0.162351       0.542739       0.302485
        776.248        165.995        6.14328      -0.177622         1.4656       0.513435       0.162346       0.542739       0.302486
        807.297        165.995        5.90807      -0.170822        1.40949       0.513439       0.162342       0.542739       0.302487
        839.587        165.996        5.68183      -0.164281        1.35552       0.513442       0.162339       0.542738       0.302487
         873.17        165.996        5.46422      -0.157989         1.3036       0.513445       0.162335       0.542738       0.302488
        908.095        165.996        5.25491      -0.151938        1.25367       0.513448       0.162332       0.542738       0.302488
        944.418        165.996        5.05359      -0.146117        1.20564       0.513451       0.162329       0.542737       0.302489
        982.193        165.997        4.85995      -0.140519        1.15944       0.513454       0.162326       0.542737       0.302489
        1021.48        165.997         4.6737      -0.135134        1.11501       0.513456       0.162324       0.542737        0.30249
        1062.34        165.997        4.49457      -0.129954        1.07228       0.513458       0.162321       0.542737        0.30249
        1104.83        165.997        4.32228      -0.124973        1.03117        0.51346       0.162319       0.542736        0.30249
        1149.02        165.998        4.15657      -0.120182        0.99164       0.513462       0.162317       0.542736       0.302491
        1194.98        165.998         3.9972      -0.115574       0.953618       0.513464       0.162315       0.542736       0.302491
        1242.78        165.998        3.84392      -0.111142        0.91705       0.513465       0.162313       0.542736       0.302491
        1292.49        165.998         3.6965       -0.10688        0.88188       0.513467       0.162312       0.542736       0.302491
        1344.18        165.998        3.55472      -0.102781       0.848055       0.513468        0.16231       0.542736       0.302492
        1397.95        165.998        3.41836      -0.098838       0.815524       0.513469       0.162309       0.542736       0.302492
        1453.86        165.998        3.28722     -0.0950463       0.784238        0.51347       0.162308       0.542735       0.302492
        1512.02        165.999         3.1611     -0.0913997        0.75415       0.513471       0.162306       0.542735       0.302492
        1572.49        165.999         3.0398     -0.0878927       0.725212       0.513472       0.162305       0.542735       0.302492
        1635.39        165.999        2.92315       -0.08452       0.697383       0.513473       0.162304       0.542735       0.302492
        1700.81        165.999        2.81097     -0.0812763        0.67062       0.513474       0.162303       0.542735       0.302493
        1768.83        165.999        2.70308      -0.078157       0.644881       0.513475       0.162303       0.542735       0.302493
        1839.59        165.999        2.59933      -0.075157       0.620128       0.513476       0.162302       0.542735       0.302493
        1913.17        165.999        2.49955      -0.072272       0.596324       0.513476       0.162301       0.542735       0.302493
        1989.69        165.999        2.40359     -0.0694976       0.573431       0.513477         0.1623       0.542735       0.302493
        2069.27        165.999        2.31131     -0.0668295       0.551416       0.513477         0.1623       0.542735       0.302493
        2152.04        165.999        2.22257     -0.0642636       0.530244       0.513478       0.162299       0.542735       0.302493
        2238.12        165.999        2.13723      -0.061796       0.509885       0.513478       0.162299       0.542735       0.302493
        2327.64        165.999        2.05516     -0.0594231       0.490305       0.513479       0.162298       0.542735       0.302493
        2420.74        165.999        1.97624     -0.0571412       0.471477       0.513479       0.162298       0.542734       0.302493
        2517.57        165.999        1.90034     -0.0549467        0.45337        0.51348       0.162297       0.542734       0.302494
        2618.27            166        1.82736     -0.0528364       0.435958        0.51348       0.162297       0.542734       0.302494
           2723            166        1.75717     -0.0508071       0.419213        0.51348       0.162297       0.542734       0.302494
        2831.91            166        1.68968     -0.0488556       0.403111       0.513481       0.162296       0.542734       0.302494
        2945.18            166        1.62477     -0.0469789       0.387627       0.513481       0.162296       0.542734       0.302494
        3062.99            166        1.56236     -0.0451743       0.372736       0.513481       0.162296       0.542734       0.302494
         3185.5            166        1.50234     -0.0434389       0.358417       0.513481       0.162295       0.542734       0.302494
        3312.92            166        1.44462       -0.04177       0.344648       0.513482       0.162295       0.542734       0.302494
        3445.43            166        1.38912     -0.0401653       0.331407       0.513482       0.162295       0.542734       0.302494
        3583.24            166        1.33575     -0.0386221       0.318674       0.513482       0.162295       0.542734       0.302494
        3726.56            166        1.28443     -0.0371381        0.30643       0.513482       0.162294       0.542734       0.302494
        3875.62            166        1.23508     -0.0357112       0.294655       0.513482       0.162294       0.542734       0.302494
        4030.64            166        1.18762      -0.034339       0.283333       0.513483       0.162294       0.542734       0.302494
        4191.86            166        1.14198     -0.0330194       0.272446       0.513483       0.162294       0.542734       0.302494
        4359.53            166         1.0981     -0.0317506       0.261976       0.513483       0.162294       0.542734       0.302494
         4533.9            166         1.0559     -0.0305304       0.251909       0.513483       0.162294       0.542734       0.302494
        4715.25            166        1.01532     -0.0293571       0.242228       0.513483       0.162294       0.542734       0.302494
        4903.85            166         0.9763     -0.0282289       0.232919       0.513483       0.162293       0.542734       0.302494
           5100            166       0.938778      -0.027144       0.223967       0.513483       0.162293       0.542734       0.302494
